clc
clear all
close all
format short
%% Energy dependence mean free path

%E: eV & sigma: barns & mfp: cm 
%1H(n,el)
hn_el = [1E-05       1159.66;
          1.10304E-05 1104.18;
          1.21669E-05 1051.36;
          1.34206E-05 1001.07;
          1.48034E-05 953.187;
          1.63286E-05 907.595;
          1.80111E-05 864.185;
          1.98669E-05 822.853;
          2.19139E-05 783.5  ;
          2.41719E-05 746.031;
          2.66625E-05 710.356;
          2.94097E-05 676.389;
          3.244E-05   644.049;
          3.57825E-05 613.258;
          3.94694E-05 583.941;
          4.35362E-05 556.029;
          4.80221E-05 529.454;
          5.29701E-05 504.152;
          5.8428E-05  480.062;
          6.44482E-05 457.127;
          7.10888E-05 435.291;
          7.84136E-05 414.502;
          8.64931E-05 394.71 ;
          9.54051E-05 375.866;
          0.000105235 357.927;
          0.000116078 340.849;
          0.000128039 324.59 ;
          0.000141232 309.112;
          0.000155784 294.377;
          0.000171835 280.349;
          0.00018954  266.997;
          0.00020907  254.286;
          0.000230612 242.186;
          0.000254374 230.669;
          0.000280584 219.707;
          0.000309494 209.273;
          0.000341383 199.343;
          0.000376558 189.891;
          0.000415358 180.897;
          0.000458155 172.337;
          0.000505362 164.191;
          0.000557433 156.441;
          0.000614869 149.067;
          0.000678223 142.051;
          0.000748105 135.376;
          0.000825188 129.027;
          0.000910213 122.988;
          0.001004    117.245;
          0.00110745  111.784;
          0.00122155  106.591;
          0.00134742  101.655;
          0.00148625  96.9629;
          0.00163939  92.5038;
          0.00180831  88.2668;
          0.00200871  83.9612;
          0.0022312   79.889 ;
          0.00247845  76.0351;
          0.00275297  72.3923;
          0.00305805  68.9472;
          0.00339677  65.6932;
          0.0037732   62.6184;
          0.00419113  59.7169;
          0.00465558  56.9778;
          0.00517125  54.3961;
          0.00574431  51.9619;
          0.00638057  49.6706;
          0.00708766  47.5134;
          0.00787271  45.4862;
          0.00874515  43.581 ;
          0.00971379  41.794 ;
          0.0108658   40.0106;
          0.0121545   38.3484;
          0.013596    36.8013;
          0.0152085   35.3637;
          0.0170122   34.0302;
          0.0191641   32.7212;
          0.0215871   31.5182;
          0.0243176   30.4143;
          0.0252419   30.0881;
          0.0253      30.0683;
          0.0286998   29.0336;
          0.0325565   28.0955;
          0.037192    27.2028;
          0.0424854   26.4036;
          0.0488745   25.6547;
          0.0566211   24.9617;
          0.0660549   24.3284;
          0.0776004   23.7567;
          0.0924546   23.2271;
          0.111701    22.7479;
          0.136864    22.3235;
          0.171253    21.9446;
          0.220371    21.6084;
          0.293678    21.3157;
          0.41105     21.0645;
          0.612785    20.8576;
          1.0076      20.6923;
          1.96022     20.5676;
          5.33729     20.4838;
          43.3445     20.4366;
          10372.7     19.1491;
          19716.6     18.1341;
          30226.7     17.1266;
          38355.2     16.4389;
          47658.6     15.72  ;
          57765.5     15.0198;
          67318.5     14.4249;
          81700.9     13.6234;
          97335.2     12.868 ;
          113126      12.199 ;
          130000      11.5707;
          145418      11.0732;
          163402      10.5453;
          183827      10.0201;
          204252      9.55722;
          224678      9.14601;
          246092      8.76163;
          267388      8.41877;
          292019      8.06353;
          322257      7.67657;
          354594      7.31633;
          402822      6.85533;
          446208      6.50393;
          493639      6.16975;
          557760      5.78944;
          608465      5.53056;
          663820      5.283  ;
          714883      5.08007;
          771312      4.88001;
          834340      4.68061;
          918107      4.44852;
          1E+06       4.24951;
          1.11552E+06 4.00986;
          1.21693E+06 3.8266 ;
          1.32764E+06 3.65106;
          1.42977E+06 3.50675;
          1.54262E+06 3.36392;
          1.66868E+06 3.22087;
          1.83827E+06 3.05132;
          2E+06       2.90839;
          2.23104E+06 2.73227;
          2.43386E+06 2.59638;
          2.63668E+06 2.47531;
          2.85953E+06 2.35649;
          3.06379E+06 2.258  ;
          3.29093E+06 2.15863;
          3.54594E+06 2.05745;
          3.8808E+06  1.93913;
          4.2E+06     1.83821;
          4.63245E+06 1.71844;
          5.07054E+06 1.61197;
          5.47618E+06 1.5241 ;
          5.88183E+06 1.44508;
          6.28747E+06 1.37359;
          6.69311E+06 1.30855;
          7.09876E+06 1.24923;
          7.60581E+06 1.18169;
          8.11287E+06 1.12066;
          8.61992E+06 1.06522;
          9.12697E+06 1.01464;
          9.63403E+06 0.96830;
          1E+07       0.93687;
          1.01411E+07 0.92569;
          1.02842E+07 0.91435;
          1.04292E+07 0.90286;
          1.05E+07    0.89725;
          1.06481E+07 0.88638;
          1.07984E+07 0.87536;
          1.09507E+07 0.86419;
          1.1E+07     0.86058;
          1.11552E+07 0.85001;
          1.13126E+07 0.83930;
          1.14722E+07 0.82843;
          1.15E+07    0.82654;
          1.16622E+07 0.81626;
          1.18268E+07 0.80584;
          1.19936E+07 0.79527;
          1.2E+07     0.79486;
          1.21693E+07 0.78486;
          1.2341E+07  0.77472;
          1.25E+07    0.76532;
          1.26764E+07 0.75558;
          1.28552E+07 0.74570;
          1.3E+07     0.73770;
          1.31834E+07 0.72822;
          1.33694E+07 0.71859;
          1.35E+07    0.71184;
          1.36905E+07 0.70259;
          1.38836E+07 0.69321;
          1.4E+07     0.68756;
          1.41975E+07 0.67880;
          1.43978E+07 0.66992;
          1.46009E+07 0.66092;
          1.48069E+07 0.65179;
          1.5E+07     0.64323;
          1.52116E+07 0.63488;
          1.54262E+07 0.62642;
          1.56439E+07 0.61784;
          1.58646E+07 0.60913;
          1.6E+07     0.60379;
          1.62257E+07 0.59582;
          1.64546E+07 0.58774;
          1.66868E+07 0.57954;
          1.69222E+07 0.57123;
          1.7E+07     0.56848;
          1.72398E+07 0.56086;
          1.74831E+07 0.55313;
          1.77297E+07 0.54529;
          1.79799E+07 0.53734;
          1.8E+07     0.53670;
          1.82539E+07 0.52940;
          1.85115E+07 0.52200;
          1.87726E+07 0.51449;
          1.9E+07     0.50796;
          1.92681E+07 0.50095;
          1.95399E+07 0.49385;
          1.98156E+07 0.48665;
          2E+07       0.48184];

%h(n,y)
hn_y = [1E-05       16.7288     ;
         1.10304E-05 15.9283     ;
         1.21669E-05 15.1661     ;
         1.34206E-05 14.4404     ;
         1.48034E-05 13.7494     ;
         1.63286E-05 13.0915     ;
         1.80111E-05 12.4651     ;
         1.98669E-05 11.8686     ;
         2.19139E-05 11.3007     ;
         2.41719E-05 10.7599     ;
         2.66625E-05 10.2451     ;
         2.94097E-05 9.75484     ;
         3.244E-05   9.28806     ;
         3.57825E-05 8.84362     ;
         3.94694E-05 8.42044     ;
         4.35362E-05 8.01752     ;
         4.80221E-05 7.63387     ;
         5.29701E-05 7.26858     ;
         5.8428E-05  6.92077     ;
         6.44482E-05 6.58961     ;
         7.10888E-05 6.27429     ;
         7.84136E-05 5.97406     ;
         8.64931E-05 5.6882      ;
         9.54051E-05 5.41601     ;
         0.000105235 5.15685     ;
         0.000116078 4.91009     ;
         0.000128039 4.67514     ;
         0.000141232 4.45143     ;
         0.000155784 4.23842     ;
         0.000171835 4.03561     ;
         0.00018954  3.8425      ;
         0.00020907  3.65864     ;
         0.000230612 3.48357     ;
         0.000254374 3.31688     ;
         0.000280584 3.15816     ;
         0.000309494 3.00704     ;
         0.000341383 2.86315     ;
         0.000376558 2.72615     ;
         0.000415358 2.5957      ;
         0.000458155 2.47149     ;
         0.000505362 2.35323     ;
         0.000557433 2.24062     ;
         0.000614869 2.13341     ;
         0.000678223 2.03132     ;
         0.000748105 1.93412     ;
         0.000825188 1.84157     ;
         0.000910213 1.75345     ;
         0.001004    1.66955     ;
         0.00110745  1.58966     ;
         0.00122155  1.51359     ;
         0.00134742  1.44117     ;
         0.00148625  1.3722      ;
         0.00163939  1.30654     ;
         0.00180831  1.24402     ;
         0.00199463  1.1845      ;
         0.00220016  1.12782     ;
         0.00242685  1.07385     ;
         0.00267691  1.02247     ;
         0.00295273  0.973539    ;
         0.00325697  0.926955    ;
         0.00359256  0.882599    ;
         0.00396272  0.840366    ;
         0.00437103  0.800154    ;
         0.00482141  0.761866    ;
         0.00531819  0.72541     ;
         0.00586616  0.690698    ;
         0.00647059  0.657648    ;
         0.0071373   0.626179    ;
         0.00787271  0.596215    ;
         0.00868389  0.567686    ;
         0.00957865  0.540522    ;
         0.0105656   0.514657    ;
         0.0116543   0.49003     ;
         0.0128551   0.466582    ;
         0.0141796   0.444256    ;
         0.0156406   0.422998    ;
         0.0172522   0.402757    ;
         0.0190298   0.383485    ;
         0.0209906   0.365134    ;
         0.0231534   0.347662    ;
         0.0252419   0.332969    ;
         0.0253      0.332587    ;
         0.0279068   0.316672    ;
         0.0307823   0.301519    ;
         0.033954    0.287091    ;
         0.0374525   0.273354    ;
         0.0413115   0.260273    ;
         0.0455681   0.247819    ;
         0.0502633   0.235961    ;
         0.0554423   0.22467     ;
         0.0611549   0.213919    ;
         0.0674561   0.203683    ;
         0.0744066   0.193936    ;
         0.0820732   0.184656    ;
         0.0905297   0.17582     ;
         0.0998577   0.167407    ;
         0.110147    0.159397    ;
         0.121496    0.151769    ;
         0.134014    0.144507    ;
         0.147823    0.137592    ;
         0.163054    0.131008    ;
         0.179855    0.124739    ;
         0.198386    0.118771    ;
         0.218827    0.113087    ;
         0.241375    0.107676    ;
         0.266245    0.102524    ;
         0.293678    0.0976177   ;
         0.323938    0.0929466   ;
         0.357316    0.088499    ;
         0.394132    0.0842642   ;
         0.434743    0.0802321   ;
         0.479537    0.076393    ;
         0.528947    0.0727376   ;
         0.583448    0.0692573   ;
         0.643565    0.0659439   ;
         0.709876    0.0627896   ;
         0.78302     0.0597871   ;
         0.8637      0.0569293   ;
         0.952693    0.0542093   ;
         1.05086     0.05162     ;
         1.15913     0.0491544   ;
         1.27857     0.0468057   ;
         1.4103      0.0445677   ;
         1.55562     0.0424352   ;
         1.7159      0.0404042   ;
         1.89271     0.0384703   ;
         2.08772     0.0366296   ;
         2.30284     0.0348775   ;
         2.54012     0.0332093   ;
         2.80184     0.0316207   ;
         3.09053     0.0301073   ;
         3.40897     0.0286657   ;
         3.76022     0.0272936   ;
         4.14767     0.0259874   ;
         4.57503     0.0247435   ;
         5.04642     0.0235602   ;
         5.56639     0.0224345   ;
         6.13994     0.0213613   ;
         6.77258     0.0203391   ;
         7.4704      0.0193658   ;
         8.24013     0.018437    ;
         9.08917     0.0175535   ;
         10.0257     0.0167136   ;
         11.0587     0.0159146   ;
         12.2842     0.0151      ;
         13.5499     0.0143774   ;
         14.9461     0.0136909   ;
         16.6016     0.012988    ;
         18.3121     0.0123659   ;
         20.199      0.0117742   ;
         22.2802     0.0112111   ;
         24.7492     0.0106372   ;
         27.1081     0.0101636   ;
         30.1122     0.00964453  ;
         33.4475     0.00914847  ;
         36.8938     0.00871101  ;
         40.6952     0.00829518  ;
         44.8884     0.00789673  ;
         49.5135     0.00751862  ;
         55.0005     0.00713305  ;
         60.6676     0.0067927   ;
         66.9186     0.00646638  ;
         73.8137     0.00615735  ;
         81.4192     0.00586288  ;
         89.8084     0.00558117  ;
         99.7559     0.00529493  ;
         110.811     0.00502322  ;
         121.372     0.00480055  ;
         132.947     0.00458554  ;
         145.618     0.00438181  ;
         158.387     0.00420137  ;
         173.492     0.0040134   ;
         190.027     0.00383461  ;
         206.691     0.00367636  ;
         226.402     0.00351154  ;
         246.256     0.00336744  ;
         267.85      0.00322739  ;
         291.338     0.00309442  ;
         314.667     0.00297688  ;
         344.675     0.00284336  ;
         377.526     0.00271646  ;
         410.632     0.00260441  ;
         449.791     0.00248741  ;
         492.661     0.00237642  ;
         535.863     0.00227773  ;
         578.799     0.00219107  ;
         642.909     0.00207711  ;
         694.423     0.0019991   ;
         750.027     0.00192211  ;
         833.143     0.00182239  ;
         906.203     0.00174713  ;
         985.669     0.0016744   ;
         1072.1      0.00160426  ;
         1157.95     0.00154269  ;
         1277.26     0.00146682  ;
         1369.94     0.0014161   ;
         1500.58     0.00135156  ;
         1666.79     0.0012808   ;
         1800.35     0.00123168  ;
         1958.22     0.00117996  ;
         2144.86     0.0011259   ;
         2349.4      0.00107399  ;
         2519.88     0.00103617  ;
         2760.05     0.000988363 ;
         3044.43     0.000939396 ;
         3358.12     0.000892229 ;
         3627.19     0.000857159 ;
         3917.63     0.000823282 ;
         4291.23     0.000784503 ;
         4667.54     0.000750337 ;
         5112.4      0.000715055 ;
         5560.72     0.000683434 ;
         6133.68     0.000648361 ;
         6625.14     0.000621813 ;
         7155.64     0.000596415 ;
         7838.03     0.000567157 ;
         8585.08     0.000539281 ;
         9403.79     0.000512647 ;
         10086.1     0.000492956 ;
         12016.2     0.000445989 ;
         14117.2     0.000406289 ;
         16105.4     0.000375782 ;
         18127       0.000349965 ;
         20134.8     0.000328165 ;
         22209.4     0.000308776 ;
         24327.4     0.000291543 ;
         26460.7     0.000276267 ;
         28380.7     0.000263949 ;
         30226.7     0.000253279 ;
         35262.9     0.000228398 ;
         40282.2     0.000208376 ;
         45375.2     0.000191592 ;
         50352.7     0.00017773  ;
         55388       0.000165714 ;
         60667       0.000154842 ;
         65458.5     0.000146151 ;
         70700       0.000137772 ;
         75829.9     0.000130481 ;
         81128.7     0.000123755 ;
         86410.1     0.000117734 ;
         91269.7     0.000112705 ;
         97019.9     0.000107323 ;
         101411      0.000103599 ;
         110776      9.64115E-05 ;
         120490      9.00269E-05 ;
         130917      8.41544E-05 ;
         141400      7.90534E-05 ;
         151660      7.46957E-05 ;
         161129      7.11322E-05 ;
         171199      6.77721E-05 ;
         182335      6.44932E-05 ;
         192681      6.17797E-05 ;
         201411      5.97151E-05 ;
         221552      5.55867E-05 ;
         240980      5.22918E-05 ;
         261834      4.93671E-05 ;
         281975      4.7E-05     ;
         302116      4.50011E-05 ;
         322257      4.33031E-05 ;
         344797      4.1703E-05  ;
         364670      4.04962E-05 ;
         388080      3.92918E-05 ;
         411366      3.82791E-05 ;
         443104      3.71419E-05 ;
         469780      3.63954E-05 ;
         503527      3.55999E-05 ;
         553880      3.47437E-05 ;
         608465      3.41345E-05 ;
         663820      3.37531E-05 ;
         719891      3.35423E-05 ;
         800000      3.34473E-05 ;
         925574      3.36424E-05 ;
         1.07256E+06 3.41087E-05 ;
         1.54262E+06 3.57793E-05 ;
         1.85115E+06 3.65902E-05 ;
         2.08585E+06 3.69863E-05 ;
         2.35963E+06 3.72538E-05 ;
         2.6E+06     3.7345E-05  ;
         3.08525E+06 3.72024E-05 ;
         3.72841E+06 3.66955E-05 ;
         6.21402E+06 3.41376E-05 ;
         7.24969E+06 3.32533E-05 ;
         8.74153E+06 3.21889E-05 ;
         1E+07       3.14376E-05 ;
         1.01411E+07 3.13686E-05 ;
         1.02842E+07 3.12986E-05 ;
         1.04292E+07 3.12277E-05 ;
         1.05764E+07 3.11558E-05 ;
         1.07256E+07 3.10828E-05 ;
         1.08769E+07 3.10089E-05 ;
         1.10304E+07 3.09338E-05 ;
         1.1186E+07  3.08578E-05 ;
         1.13438E+07 3.07806E-05 ;
         1.15038E+07 3.07024E-05 ;
         1.16661E+07 3.0623E-05  ;
         1.18307E+07 3.05426E-05 ;
         1.19976E+07 3.0461E-05  ;
         1.21669E+07 3.03782E-05 ;
         1.23386E+07 3.02943E-05 ;
         1.25E+07    3.02154E-05 ;
         1.26764E+07 3.01422E-05 ;
         1.28552E+07 3.0068E-05  ;
         1.30366E+07 2.99927E-05 ;
         1.32205E+07 2.99164E-05 ;
         1.3407E+07  2.9839E-05  ;
         1.35961E+07 2.97604E-05 ;
         1.3788E+07  2.96808E-05 ;
         1.39825E+07 2.96001E-05 ;
         1.41798E+07 2.95182E-05 ;
         1.43798E+07 2.94352E-05 ;
         1.45827E+07 2.9351E-05  ;
         1.47884E+07 2.92656E-05 ;
         1.4997E+07  2.9179E-05  ;
         1.52086E+07 2.90912E-05 ;
         1.54232E+07 2.90021E-05 ;
         1.56408E+07 2.89118E-05 ;
         1.58615E+07 2.88203E-05 ;
         1.60852E+07 2.87274E-05 ;
         1.63122E+07 2.86332E-05 ;
         1.65423E+07 2.85377E-05 ;
         1.67757E+07 2.84408E-05 ;
         1.70124E+07 2.83426E-05 ;
         1.72524E+07 2.8243E-05  ;
         1.74958E+07 2.81419E-05 ;
         1.77426E+07 2.80395E-05 ;
         1.79929E+07 2.79356E-05 ;
         1.82468E+07 2.78302E-05 ;
         1.85042E+07 2.77234E-05 ;
         1.87653E+07 2.7615E-05  ;
         1.9E+07     2.75176E-05 ;
         1.92681E+07 2.74078E-05 ;
         1.95399E+07 2.72964E-05 ;
         1.98156E+07 2.71835E-05 ;
         2E+07       2.71079E-05];

%16o(n,el)
On_el = [1E-05       54.1469  ;
 1.10304E-05 51.567   ;
 1.21669E-05 49.1112  ;
 1.34206E-05 46.7734  ;
 1.48034E-05 44.548   ;
 1.63286E-05 42.4298  ;
 1.80111E-05 40.4137  ;
 1.98669E-05 38.4947  ;
 2.19139E-05 36.6683  ;
 2.41719E-05 34.93    ;
 2.66625E-05 33.2758  ;
 2.94097E-05 31.7016  ;
 3.244E-05   30.2036  ;
 3.57825E-05 28.7782  ;
 3.94694E-05 27.422   ;
 4.35362E-05 26.1318  ;
 4.80221E-05 24.9044  ;
 5.29701E-05 23.7368  ;
 5.8428E-05  22.6263  ;
 6.44482E-05 21.5702  ;
 7.10888E-05 20.566   ;
 7.84136E-05 19.6112  ;
 8.64931E-05 18.7035  ;
 9.54051E-05 17.8408  ;
 0.000105235 17.0209  ;
 0.000116078 16.242   ;
 0.000128942 15.4504  ;
 0.000143224 14.7018  ;
 0.000159096 13.9933  ;
 0.000176718 13.3237  ;
 0.000196302 12.6905  ;
 0.000218044 12.0925  ;
 0.000242208 11.5274  ;
 0.000269035 10.9942  ;
 0.00029885  10.4909  ;
 0.000331951 10.0166  ;
 0.000368737 9.56946  ;
 0.000409579 9.14861  ;
 0.000454969 8.75245  ;
 0.000505362 8.38022  ;
 0.000561366 8.03045  ;
 0.000623544 7.70244  ;
 0.000697495 7.37517  ;
 0.000780217 7.0702   ;
 0.00087275  6.78644  ;
 0.000976257 6.52283  ;
 0.00109204  6.27837  ;
 0.00123017  6.03848  ;
 0.00138571  5.8181   ;
 0.00156099  5.61595  ;
 0.00177075  5.42075  ;
 0.00200871  5.24369  ;
 0.0022946   5.07518  ;
 0.00262131  4.9241   ;
 0.00301551  4.78252  ;
 0.00349329  4.65147  ;
 0.00407533  4.5316   ;
 0.00478787  4.42332  ;
